Wavenumber,Intensity
400.6888,96.808575
402.5525,97.690220
404.4162,96.102383
406.2798,94.359329
408.1435,96.338145
410.0072,97.124546
411.8708,97.154316
413.7345,96.691753
415.5982,95.983018
417.4618,96.063928
419.3255,96.780678
421.1892,96.234063
423.0528,95.948842
424.9165,95.534496
426.7802,95.381333
428.6439,95.636541
430.5075,95.939338
432.3712,95.555046
434.2349,95.356446
436.0985,95.102889
437.9622,95.436706
439.8259,95.596595
441.6895,95.520113
443.5532,95.444990
445.4169,95.475485
447.2805,95.603349
449.1442,95.844621
451.0079,95.661056
452.8715,95.311639
454.7352,95.334931
456.5989,95.349202
458.4626,95.351016
460.3262,95.695272
462.1899,95.841594
464.0536,95.635424
465.9172,95.506995
467.7809,95.667877
469.6446,95.603884
471.5082,95.679869
473.3719,95.745383
475.2356,95.723766
477.0992,95.724057
478.9629,95.707015
480.8266,95.717936
482.6902,95.910018
484.5539,95.963021
486.4176,95.972684
488.2813,96.070294
490.1449,96.212855
492.0086,96.049241
493.8723,95.937739
495.7359,96.001441
497.5996,96.052847
499.4633,96.050584
501.3269,96.016498
503.1906,96.176720
505.0543,96.275911
506.9179,96.257457
508.7816,96.266100
510.6453,96.265657
512.5090,96.293613
514.3726,96.285237
516.2363,96.160846
518.1000,96.216219
519.9636,96.338430
521.8273,96.365204
523.6910,96.340516
525.5546,96.272426
527.4183,96.363132
529.2820,96.371563
531.1456,96.358935
533.0093,96.286602
534.8730,96.217105
536.7366,96.275202
538.6003,96.440290
540.4640,96.539222
542.3277,96.541635
544.1913,96.553365
546.0550,96.545033
547.9187,96.516941
549.7823,96.573161
551.6460,96.534981
553.5097,96.570323
555.3733,96.579093
557.2370,96.545755
559.1007,96.492112
560.9643,96.500415
562.8280,96.518713
564.6917,96.513883
566.5554,96.623471
568.4190,96.702749
570.2827,96.595281
572.1464,96.557492
574.0100,96.609967
575.8737,96.580143
577.7374,96.606120
579.6010,96.661217
581.4647,96.641813
583.3284,96.606403
585.1920,96.561093
587.0557,96.560336
588.9194,96.559025
590.7830,96.601957
592.6467,96.631348
594.5104,96.651533
596.3741,96.618185
598.2377,96.573503
600.1014,96.652618
601.9651,96.742025
603.8287,96.720624
605.6924,96.747931
607.5561,96.746449
609.4197,96.718163
611.2834,96.744375
613.1471,96.795029
615.0107,96.827009
616.8744,96.855124
618.7381,96.880730
620.6017,96.857096
622.4654,96.830409
624.3291,96.882628
626.1928,96.907442
628.0564,96.904947
629.9201,96.979203
631.7838,96.997473
633.6474,96.993522
635.5111,96.986915
637.3748,96.964463
639.2384,96.943767
641.1021,96.992294
642.9658,97.063969
644.8294,97.079534
646.6931,97.032402
648.5568,97.033516
650.4205,97.066768
652.2841,97.065293
654.1478,97.045488
656.0115,97.043998
657.8751,97.075945
659.7388,97.072419
661.6025,97.038564
663.4661,97.035613
665.3298,97.082193
667.1935,97.137292
669.0571,97.096027
670.9208,97.084828
672.7845,97.096488
674.6481,97.066506
676.5118,97.064758
678.3755,97.105592
680.2392,97.129285
682.1028,97.094857
683.9665,97.086678
685.8302,97.112296
687.6938,97.131031
689.5575,97.122829
691.4212,97.148553
693.2848,97.165287
695.1485,97.142340
697.0122,97.141892
698.8758,97.161443
700.7395,97.139775
702.6032,97.143102
704.4669,97.147024
706.3305,97.104126
708.1942,97.067290
710.0579,97.039632
711.9215,97.046072
713.7852,97.092755
715.6489,97.121776
717.5125,97.103576
719.3762,97.091191
721.2399,97.127821
723.1035,97.138318
724.9672,97.115462
726.8309,97.092771
728.6945,97.078918
730.5582,97.069599
732.4219,97.050481
734.2856,97.024488
736.1492,97.023725
738.0129,97.050172
739.8766,97.047853
741.7402,97.025559
743.6039,97.016821
745.4676,96.991693
747.3312,96.968257
749.1949,97.000555
751.0586,97.010417
752.9222,97.020299
754.7859,97.052135
756.6496,97.023215
758.5132,96.999216
760.3769,96.991540
762.2406,96.990557
764.1043,97.011509
765.9679,97.003994
767.8316,96.978138
769.6953,96.977019
771.5589,96.957719
773.4226,96.961506
775.2863,96.972576
777.1499,96.943366
779.0136,96.935917
780.8773,96.973802
782.7409,97.006100
784.6046,96.991954
786.4683,96.973152
788.3320,96.952674
790.1956,96.937300
792.0593,96.976272
793.9230,97.005131
795.7866,96.971724
797.6503,96.943975
799.5140,96.971675
801.3776,96.987624
803.2413,96.963737
805.1050,96.973121
806.9686,97.007643
808.8323,97.023130
810.6960,97.034873
812.5596,97.019540
814.4233,97.032510
816.2870,97.067859
818.1507,97.054145
820.0143,97.045735
821.8780,97.076509
823.7417,97.090506
825.6053,97.081110
827.4690,97.076437
829.3327,97.087601
831.1963,97.068338
833.0600,97.040150
834.9237,97.052733
836.7873,97.078943
838.6510,97.085819
840.5147,97.080139
842.3784,97.046744
844.2420,97.022592
846.1057,97.044763
847.9694,97.028553
849.8330,97.025170
851.6967,97.039197
853.5604,97.029710
855.4240,96.993696
857.2877,96.966066
859.1514,96.994875
861.0150,97.005216
862.8787,96.966049
864.7424,96.948688
866.6060,96.965280
868.4697,96.960109
870.3334,96.924362
872.1971,96.894478
874.0607,96.910091
875.9244,96.974110
877.7881,97.012560
879.6517,97.047965
881.5154,97.070966
883.3791,97.057916
885.2427,97.065716
887.1064,97.108377
888.9701,97.184064
890.8337,97.227232
892.6974,97.233261
894.5611,97.219785
896.4247,97.227505
898.2884,97.250810
900.1521,97.279076
902.0158,97.293396
903.8794,97.306139
905.7431,97.339798
907.6068,97.391366
909.4704,97.414128
911.3341,97.413352
913.1978,97.431956
915.0614,97.449733
916.9251,97.459173
918.7888,97.446534
920.6524,97.421054
922.5161,97.438639
924.3798,97.465288
926.2435,97.501299
928.1071,97.517509
929.9708,97.515415
931.8345,97.527754
933.6981,97.539673
935.5618,97.556175
937.4255,97.564230
939.2891,97.550361
941.1528,97.527763
943.0165,97.506657
944.8801,97.516553
946.7438,97.535642
948.6075,97.550703
950.4711,97.556081
952.3348,97.550601
954.1985,97.516276
956.0622,97.511002
957.9258,97.509397
959.7895,97.495549
961.6532,97.482214
963.5168,97.480632
965.3805,97.484710
967.2442,97.472106
969.1078,97.464481
970.9715,97.463896
972.8352,97.476285
974.6988,97.479308
976.5625,97.445869
978.4262,97.433152
980.2899,97.456966
982.1535,97.446762
984.0172,97.428400
985.8809,97.408248
987.7445,97.389147
989.6082,97.380194
991.4719,97.386783
993.3355,97.398685
995.1992,97.392298
997.0629,97.380841
998.9265,97.357765
1000.7902,97.339146
1002.6539,97.332971
1004.5175,97.314122
1006.3812,97.279974
1008.2449,97.246222
1010.1086,97.221416
1011.9722,97.216492
1013.8359,97.206780
1015.6996,97.192387
1017.5632,97.213750
1019.4269,97.238636
1021.2906,97.220450
1023.1542,97.214058
1025.0179,97.245068
1026.8816,97.298834
1028.7452,97.344913
1030.6089,97.359718
1032.4726,97.373218
1034.3362,97.394280
1036.1999,97.423741
1038.0636,97.452348
1039.9273,97.477271
1041.7909,97.496518
1043.6546,97.497900
1045.5183,97.512590
1047.3819,97.534035
1049.2456,97.541569
1051.1093,97.551888
1052.9729,97.550698
1054.8366,97.543704
1056.7003,97.571028
1058.5639,97.587756
1060.4276,97.592590
1062.2913,97.596404
1064.1550,97.572947
1066.0186,97.572793
1067.8823,97.599212
1069.7460,97.601529
1071.6096,97.596445
1073.4733,97.618317
1075.3370,97.630220
1077.2006,97.604685
1079.0643,97.590147
1080.9280,97.584319
1082.7916,97.585129
1084.6553,97.601392
1086.5190,97.612181
1088.3826,97.606400
1090.2463,97.595247
1092.1100,97.596915
1093.9737,97.569015
1095.8373,97.537394
1097.7010,97.532774
1099.5647,97.546019
1101.4283,97.572075
1103.2920,97.580922
1105.1557,97.587193
1107.0193,97.579093
1108.8830,97.560501
1110.7467,97.537033
1112.6103,97.506682
1114.4740,97.512121
1116.3377,97.522108
1118.2014,97.519139
1120.0650,97.497630
1121.9287,97.469727
1123.7924,97.465934
1125.6560,97.487947
1127.5197,97.517222
1129.3834,97.520361
1131.2470,97.497659
1133.1107,97.497269
1134.9744,97.502002
1136.8380,97.493357
1138.7017,97.492337
1140.5654,97.491609
1142.4290,97.478226
1144.2927,97.456914
1146.1564,97.440759
1148.0201,97.432239
1149.8837,97.435454
1151.7474,97.440259
1153.6111,97.438046
1155.4747,97.432327
1157.3384,97.410126
1159.2021,97.395211
1161.0657,97.389122
1162.9294,97.395604
1164.7931,97.403243
1166.6567,97.392642
1168.5204,97.411687
1170.3841,97.423451
1172.2477,97.408727
1174.1114,97.404773
1175.9751,97.414431
1177.8388,97.440567
1179.7024,97.464365
1181.5661,97.468539
1183.4298,97.457031
1185.2934,97.465004
1187.1571,97.472475
1189.0208,97.478422
1190.8844,97.483482
1192.7481,97.479654
1194.6118,97.477629
1196.4754,97.471742
1198.3391,97.469764
1200.2028,97.466727
1202.0665,97.452657
1203.9301,97.455983
1205.7938,97.461382
1207.6575,97.450325
1209.5211,97.445261
1211.3848,97.437632
1213.2485,97.425279
1215.1121,97.419590
1216.9758,97.406131
1218.8395,97.400893
1220.7031,97.403332
1222.5668,97.409823
1224.4305,97.403573
1226.2941,97.384359
1228.1578,97.384433
1230.0215,97.388154
1231.8852,97.376751
1233.7488,97.374758
1235.6125,97.386416
1237.4762,97.396111
1239.3398,97.392296
1241.2035,97.381613
1243.0672,97.367517
1244.9308,97.351243
1246.7945,97.345139
1248.6582,97.339676
1250.5218,97.333039
1252.3855,97.336343
1254.2492,97.332625
1256.1129,97.337254
1257.9765,97.348189
1259.8402,97.328747
1261.7039,97.319151
1263.5675,97.336589
1265.4312,97.333840
1267.2949,97.314207
1269.1585,97.297891
1271.0222,97.311145
1272.8859,97.318346
1274.7495,97.311289
1276.6132,97.300813
1278.4769,97.288778
1280.3405,97.278324
1282.2042,97.268549
1284.0679,97.273180
1285.9316,97.290619
1287.7952,97.291413
1289.6589,97.277769
1291.5226,97.266576
1293.3862,97.261940
1295.2499,97.258061
1297.1136,97.241396
1298.9772,97.230164
1300.8409,97.217385
1302.7046,97.203727
1304.5682,97.209971
1306.4319,97.205742
1308.2956,97.192431
1310.1592,97.193118
1312.0229,97.191690
1313.8866,97.207540
1315.7503,97.207350
1317.6139,97.206307
1319.4776,97.202841
1321.3413,97.188049
1323.2049,97.178927
1325.0686,97.180421
1326.9323,97.172743
1328.7959,97.164331
1330.6596,97.162033
1332.5233,97.159483
1334.3869,97.167271
1336.2506,97.158847
1338.1143,97.147384
1339.9780,97.145196
1341.8416,97.143986
1343.7053,97.151027
1345.5690,97.154839
1347.4326,97.143552
1349.2963,97.153772
1351.1600,97.163725
1353.0236,97.140715
1354.8873,97.127435
1356.7510,97.140178
1358.6146,97.142777
1360.4783,97.129670
1362.3420,97.120057
1364.2056,97.129593
1366.0693,97.140168
1367.9330,97.131352
1369.7967,97.119251
1371.6603,97.116563
1373.5240,97.109788
1375.3877,97.100304
1377.2513,97.101989
1379.1150,97.111368
1380.9787,97.123425
1382.8423,97.136847
1384.7060,97.126968
1386.5697,97.098155
1388.4333,97.111922
1390.2970,97.144544
1392.1607,97.152327
1394.0244,97.134324
1395.8880,97.094355
1397.7517,97.071650
1399.6154,97.076350
1401.4790,97.102588
1403.3427,97.113994
1405.2064,97.106066
1407.0700,97.095617
1408.9337,97.094065
1410.7974,97.110939
1412.6610,97.125122
1414.5247,97.142205
1416.3884,97.130574
1418.2520,97.049843
1420.1157,97.029702
1421.9794,97.093319
1423.8431,97.097243
1425.7067,97.110661
1427.5704,97.115708
1429.4341,97.078435
1431.2977,97.101860
1433.1614,97.143668
1435.0251,97.101728
1436.8887,97.042421
1438.7524,97.065073
1440.6161,97.085340
1442.4797,97.098321
1444.3434,97.102600
1446.2071,97.088475
1448.0707,97.088966
1449.9344,97.107219
1451.7981,97.125169
1453.6618,97.120494
1455.5254,97.057182
1457.3891,96.975182
1459.2528,97.058181
1461.1164,97.119013
1462.9801,97.117425
1464.8438,97.094746
1466.7074,97.130660
1468.5711,97.186687
1470.4348,97.195989
1472.2984,97.141356
1474.1621,97.136490
1476.0258,97.165238
1477.8895,97.185191
1479.7531,97.200289
1481.6168,97.203819
1483.4805,97.229674
1485.3441,97.230236
1487.2078,97.203909
1489.0715,97.163928
1490.9351,97.181310
1492.7988,97.244992
1494.6625,97.228363
1496.5261,97.167664
1498.3898,97.188018
1500.2535,97.229881
1502.1171,97.273476
1503.9808,97.263455
1505.8445,97.119443
1507.7082,97.050832
1509.5718,97.153335
1511.4355,97.207342
1513.2992,97.229389
1515.1628,97.226239
1517.0265,97.198761
1518.8902,97.184555
1520.7538,97.142542
1522.6175,97.150438
1524.4812,97.163042
1526.3448,97.152412
1528.2085,97.195522
1530.0722,97.222550
1531.9359,97.189516
1533.7995,97.188430
1535.6632,97.254423
1537.5269,97.250377
1539.3905,97.139214
1541.2542,97.117650
1543.1179,97.143249
1544.9815,97.151270
1546.8452,97.191694
1548.7089,97.204391
1550.5725,97.213029
1552.4362,97.259523
1554.2999,97.278686
1556.1635,97.254726
1558.0272,97.102843
1559.8909,97.039080
1561.7546,97.198392
1563.6182,97.257884
1565.4819,97.243804
1567.3456,97.222075
1569.2092,97.193939
1571.0729,97.213950
1572.9366,97.239670
1574.8002,97.183801
1576.6639,97.148409
1578.5276,97.204119
1580.3912,97.230663
1582.2549,97.238779
1584.1186,97.247926
1585.9822,97.245331
1587.8459,97.253495
1589.7096,97.249880
1591.5733,97.231040
1593.4369,97.219650
1595.3006,97.227485
1597.1643,97.239108
1599.0279,97.272142
1600.8916,97.288477
1602.7553,97.278781
1604.6189,97.281192
1606.4826,97.254091
1608.3463,97.240870
1610.2099,97.263585
1612.0736,97.283869
1613.9373,97.293404
1615.8010,97.234787
1617.6646,97.227432
1619.5283,97.299120
1621.3920,97.294513
1623.2556,97.248659
1625.1193,97.258626
1626.9830,97.273115
1628.8466,97.292174
1630.7103,97.335767
1632.5740,97.332294
1634.4376,97.219500
1636.3013,97.148541
1638.1650,97.221780
1640.0286,97.265810
1641.8923,97.281631
1643.7560,97.298660
1645.6197,97.273378
1647.4833,97.274782
1649.3470,97.340279
1651.2107,97.251791
1653.0743,97.084519
1654.9380,97.195979
1656.8017,97.285237
1658.6653,97.303520
1660.5290,97.311322
1662.3927,97.308883
1664.2563,97.357339
1666.1200,97.363124
1667.9837,97.311173
1669.8474,97.299658
1671.7110,97.351431
1673.5747,97.369137
1675.4384,97.331767
1677.3020,97.356450
1679.1657,97.368317
1681.0294,97.329033
1682.8930,97.263863
1684.7567,97.251790
1686.6204,97.352356
1688.4840,97.379212
1690.3477,97.401516
1692.2114,97.424731
1694.0750,97.401387
1695.9387,97.401216
1697.8024,97.395229
1699.6661,97.288165
1701.5297,97.308216
1703.3934,97.393104
1705.2571,97.376263
1707.1207,97.383448
1708.9844,97.422026
1710.8481,97.433649
1712.7117,97.412786
1714.5754,97.362399
1716.4391,97.280048
1718.3027,97.278593
1720.1664,97.358582
1722.0301,97.342812
1723.8937,97.317429
1725.7574,97.357516
1727.6211,97.354956
1729.4848,97.341927
1731.3484,97.310621
1733.2121,97.234876
1735.0758,97.256379
1736.9394,97.349051
1738.8031,97.366317
1740.6668,97.364507
1742.5304,97.379744
1744.3941,97.375748
1746.2578,97.375287
1748.1214,97.396163
1749.9851,97.398641
1751.8488,97.407287
1753.7125,97.476435
1755.5761,97.508432
1757.4398,97.460324
1759.3035,97.417825
1761.1671,97.421004
1763.0308,97.465163
1764.8945,97.472124
1766.7581,97.446502
1768.6218,97.435832
1770.4855,97.427138
1772.3491,97.415666
1774.2128,97.423460
1776.0765,97.431712
1777.9401,97.450515
1779.8038,97.451679
1781.6675,97.438758
1783.5312,97.444680
1785.3948,97.450340
1787.2585,97.478744
1789.1222,97.481677
1790.9858,97.437542
1792.8495,97.420054
1794.7132,97.456527
1796.5768,97.463485
1798.4405,97.439578
1800.3042,97.434176
1802.1678,97.470328
1804.0315,97.501442
1805.8952,97.487202
1807.7589,97.447796
1809.6225,97.435097
1811.4862,97.487087
1813.3499,97.530880
1815.2135,97.563605
1817.0772,97.552018
1818.9409,97.446836
1820.8045,97.428913
1822.6682,97.496286
1824.5319,97.475915
1826.3955,97.484516
1828.2592,97.516982
1830.1229,97.486308
1831.9865,97.492428
1833.8502,97.502983
1835.7139,97.511474
1837.5776,97.531923
1839.4412,97.500280
1841.3049,97.430578
1843.1686,97.365106
1845.0322,97.414187
1846.8959,97.503894
1848.7596,97.494318
1850.6232,97.508089
1852.4869,97.580902
1854.3506,97.551594
1856.2142,97.462792
1858.0779,97.463233
1859.9416,97.464032
1861.8052,97.443047
1863.6689,97.454921
1865.5326,97.456829
1867.3963,97.469864
1869.2599,97.455511
1871.1236,97.512690
1872.9873,97.612550
1874.8509,97.607982
1876.7146,97.574314
1878.5783,97.585465
1880.4419,97.552685
1882.3056,97.479360
1884.1693,97.531939
1886.0329,97.616020
1887.8966,97.549780
1889.7603,97.528109
1891.6240,97.670968
1893.4876,97.686139
1895.3513,97.648307
1897.2150,97.621221
1899.0786,97.560782
1900.9423,97.563929
1902.8060,97.604740
1904.6696,97.666469
1906.5333,97.691334
1908.3970,97.655438
1910.2606,97.610094
1912.1243,97.598468
1913.9880,97.553480
1915.8516,97.541051
1917.7153,97.587435
1919.5790,97.585336
1921.4427,97.617827
1923.3063,97.744338
1925.1700,97.794836
1927.0337,97.772698
1928.8973,97.780367
1930.7610,97.741920
1932.6247,97.723949
1934.4883,97.731521
1936.3520,97.676594
1938.2157,97.601015
1940.0793,97.663690
1941.9430,97.803764
1943.8067,97.748143
1945.6704,97.694306
1947.5340,97.773025
1949.3977,97.834217
1951.2614,97.870569
1953.1250,97.924790
1954.9887,97.899858
1956.8524,97.806566
1958.7160,97.823360
1960.5797,97.955428
1962.4434,97.864199
1964.3070,97.608853
1966.1707,97.737913
1968.0344,97.924024
1969.8980,97.845844
1971.7617,97.783037
1973.6254,97.910732
1975.4891,97.992254
1977.3527,97.715192
1979.2164,97.410217
1981.0801,97.454733
1982.9437,97.548896
1984.8074,97.483132
1986.6711,97.407371
1988.5347,97.388231
1990.3984,97.602715
1992.2621,98.001452
1994.1257,98.076416
1995.9894,97.771455
1997.8531,97.658684
1999.7167,97.966039
2001.5804,97.873218
2003.4441,97.546881
2005.3078,97.873491
2007.1714,98.198772
2009.0351,97.920547
2010.8988,97.619100
2012.7624,97.673432
2014.6261,97.887501
2016.4898,98.007999
2018.3534,98.078586
2020.2171,97.805044
2022.0808,97.591149
2023.9444,97.663720
2025.8081,97.447806
2027.6718,97.396548
2029.5355,97.637696
2031.3991,97.839135
2033.2628,97.819422
2035.1265,97.586916
2036.9901,97.569127
2038.8538,97.625209
2040.7175,97.579196
2042.5811,97.552166
2044.4448,97.376958
2046.3085,97.232443
2048.1721,97.400693
2050.0358,97.596495
2051.8995,97.697499
2053.7631,97.664991
2055.6268,97.477034
2057.4905,97.523921
2059.3542,97.723790
2061.2178,97.696267
2063.0815,97.493494
2064.9452,97.396672
2066.8088,97.443321
2068.6725,97.571072
2070.5362,97.661957
2072.3998,97.569687
2074.2635,97.540317
2076.1272,97.590859
2077.9908,97.444744
2079.8545,97.365256
2081.7182,97.464942
2083.5819,97.477587
2085.4455,97.486641
2087.3092,97.527772
2089.1729,97.540061
2091.0365,97.538821
2092.9002,97.641645
2094.7639,97.792641
2096.6275,97.704007
2098.4912,97.506572
2100.3549,97.497067
2102.2185,97.532306
2104.0822,97.442054
2105.9459,97.410731
2107.8095,97.464616
2109.6732,97.506045
2111.5369,97.486101
2113.4006,97.486736
2115.2642,97.533317
2117.1279,97.644539
2118.9916,97.711439
2120.8552,97.747749
2122.7189,97.889180
2124.5826,97.918658
2126.4462,97.890381
2128.3099,97.849525
2130.1736,97.812427
2132.0372,97.900523
2133.9009,97.897781
2135.7646,97.812388
2137.6282,97.788919
2139.4919,98.116415
2141.3556,98.505154
2143.2193,98.259433
2145.0829,98.036392
2146.9466,97.941353
2148.8103,97.872712
2150.6739,97.985397
2152.5376,98.070960
2154.4013,98.437331
2156.2649,98.588753
2158.1286,98.003815
2159.9923,97.665537
2161.8559,97.693478
2163.7196,97.533738
2165.5833,97.401193
2167.4470,97.252828
2169.3106,97.252345
2171.1743,97.791196
2173.0380,98.211763
2174.9016,98.153469
2176.7653,97.912754
2178.6290,97.846726
2180.4926,98.042743
2182.3563,97.911532
2184.2200,97.828340
2186.0836,98.062815
2187.9473,97.964191
2189.8110,97.551656
2191.6746,97.276572
2193.5383,97.389898
2195.4020,97.638000
2197.2657,97.767606
2199.1293,97.614760
2200.9930,97.365408
2202.8567,97.488480
2204.7203,97.674089
2206.5840,97.690696
2208.4477,97.611144
2210.3113,97.529008
2212.1750,97.708890
2214.0387,97.756750
2215.9023,97.605619
2217.7660,97.814615
2219.6297,97.771243
2221.4934,97.209338
2223.3570,96.989408
2225.2207,97.305205
2227.0844,97.558716
2228.9480,97.517894
2230.8117,97.494287
2232.6754,97.470661
2234.5390,97.398093
2236.4027,97.522433
2238.2664,97.606978
2240.1300,97.568229
2241.9937,97.519545
2243.8574,97.520556
2245.7210,97.431284
2247.5847,97.387505
2249.4484,97.514328
2251.3121,97.394981
2253.1757,97.351541
2255.0394,97.400841
2256.9031,97.417614
2258.7667,97.481958
2260.6304,97.460549
2262.4941,97.408854
2264.3577,97.282944
2266.2214,97.206022
2268.0851,97.177669
2269.9487,97.216462
2271.8124,97.331328
2273.6761,97.301283
2275.5397,97.222980
2277.4034,97.213107
2279.2671,97.313534
2281.1308,97.314170
2282.9944,97.155528
2284.8581,97.044565
2286.7218,97.008401
2288.5854,97.119785
2290.4491,97.224075
2292.3128,97.187996
2294.1764,97.229215
2296.0401,97.301495
2297.9038,97.218945
2299.7674,97.162041
2301.6311,97.173853
2303.4948,97.165226
2305.3585,97.193695
2307.2221,97.214019
2309.0858,97.216892
2310.9495,97.256972
2312.8131,97.309263
2314.6768,97.261488
2316.5405,97.189000
2318.4041,97.201849
2320.2678,97.122985
2322.1315,96.962081
2323.9951,97.014315
2325.8588,97.242160
2327.7225,97.321819
2329.5861,97.296174
2331.4498,97.319842
2333.3135,97.316825
2335.1772,97.342445
2337.0408,97.385712
2338.9045,97.381610
2340.7682,97.343500
2342.6318,97.338065
2344.4955,97.384741
2346.3592,97.404192
2348.2228,97.417826
2350.0865,97.455959
2351.9502,97.433032
2353.8138,97.402320
2355.6775,97.419916
2357.5412,97.444259
2359.4049,97.504184
2361.2685,97.452902
2363.1322,97.393281
2364.9959,97.447698
2366.8595,97.516451
2368.7232,97.484721
2370.5869,97.434202
2372.4505,97.428778
2374.3142,97.414231
2376.1779,97.428203
2378.0415,97.427225
2379.9052,97.400233
2381.7689,97.358916
2383.6325,97.382368
2385.4962,97.441781
2387.3599,97.385328
2389.2236,97.303433
2391.0872,97.332394
2392.9509,97.393374
2394.8146,97.399425
2396.6782,97.365501
2398.5419,97.322086
2400.4056,97.345734
2402.2692,97.410570
2404.1329,97.421827
2405.9966,97.423760
2407.8602,97.384315
2409.7239,97.275522
2411.5876,97.266761
2413.4512,97.341705
2415.3149,97.332947
2417.1786,97.316001
2419.0423,97.334219
2420.9059,97.345223
2422.7696,97.353983
2424.6333,97.358735
2426.4969,97.374855
2428.3606,97.375309
2430.2243,97.331590
2432.0879,97.262380
2433.9516,97.236614
2435.8153,97.270094
2437.6789,97.299495
2439.5426,97.259751
2441.4063,97.177989
2443.2700,97.115630
2445.1336,97.105501
2446.9973,97.219887
2448.8610,97.319276
2450.7246,97.313276
2452.5883,97.290967
2454.4520,97.228148
2456.3156,97.182455
2458.1793,97.194411
2460.0430,97.265981
2461.9066,97.355414
2463.7703,97.325477
2465.6340,97.279866
2467.4976,97.300980
2469.3613,97.286549
2471.2250,97.276810
2473.0887,97.334277
2474.9523,97.343058
2476.8160,97.320228
2478.6797,97.351949
2480.5433,97.283504
2482.4070,97.133045
2484.2707,97.160238
2486.1343,97.284241
2487.9980,97.250558
2489.8617,97.170072
2491.7253,97.227248
2493.5890,97.338038
2495.4527,97.325292
2497.3164,97.268399
2499.1800,97.304359
2501.0437,97.307140
2502.9074,97.276445
2504.7710,97.294813
2506.6347,97.284279
2508.4984,97.269337
2510.3620,97.232055
2512.2257,97.161847
2514.0894,97.158299
2515.9530,97.272638
2517.8167,97.353335
2519.6804,97.335996
2521.5440,97.303624
2523.4077,97.244334
2525.2714,97.187201
2527.1351,97.170210
2528.9987,97.173274
2530.8624,97.197420
2532.7261,97.259625
2534.5897,97.247887
2536.4534,97.179806
2538.3171,97.170276
2540.1807,97.206220
2542.0444,97.205547
2543.9081,97.169959
2545.7717,97.175620
2547.6354,97.211410
2549.4991,97.218702
2551.3627,97.225256
2553.2264,97.196673
2555.0901,97.171196
2556.9538,97.206777
2558.8174,97.214217
2560.6811,97.145809
2562.5448,97.131511
2564.4084,97.222608
2566.2721,97.248622
2568.1358,97.175931
2569.9994,97.164596
2571.8631,97.157202
2573.7268,97.092541
2575.5904,97.060800
2577.4541,97.122936
2579.3178,97.187810
2581.1815,97.186786
2583.0451,97.159809
2584.9088,97.159646
2586.7725,97.176116
2588.6361,97.157155
2590.4998,97.148740
2592.3635,97.181250
2594.2271,97.150620
2596.0908,97.099704
2597.9545,97.151059
2599.8181,97.203307
2601.6818,97.142032
2603.5455,97.048270
2605.4091,97.046158
2607.2728,97.134672
2609.1365,97.112784
2611.0002,97.030829
2612.8638,97.071980
2614.7275,97.134454
2616.5912,97.090590
2618.4548,97.032861
2620.3185,97.060285
2622.1822,97.088946
2624.0458,97.071356
2625.9095,97.007853
2627.7732,96.978479
2629.6368,96.985798
2631.5005,96.997012
2633.3642,97.019312
2635.2279,97.031108
2637.0915,97.065172
2638.9552,97.059481
2640.8189,97.047161
2642.6825,97.071004
2644.5462,97.097090
2646.4099,97.105333
2648.2735,97.064907
2650.1372,97.003194
2652.0009,97.000252
2653.8645,97.034460
2655.7282,97.043823
2657.5919,97.033299
2659.4555,97.057554
2661.3192,97.112002
2663.1829,97.151282
2665.0466,97.152644
2666.9102,97.138311
2668.7739,97.123543
2670.6376,97.091975
2672.5012,97.092775
2674.3649,97.115948
2676.2286,97.107022
2678.0922,97.113425
2679.9559,97.139528
2681.8196,97.161828
2683.6832,97.168844
2685.5469,97.154179
2687.4106,97.132386
2689.2742,97.116347
2691.1379,97.096423
2693.0016,97.079776
2694.8653,97.124923
2696.7289,97.141306
2698.5926,97.098542
2700.4563,97.115055
2702.3199,97.079386
2704.1836,97.095071
2706.0473,97.169374
2707.9109,97.165097
2709.7746,97.145048
2711.6383,97.096100
2713.5019,97.099432
2715.3656,97.162825
2717.2293,97.115886
2719.0930,97.081222
2720.9566,97.070420
2722.8203,97.067665
2724.6840,97.113376
2726.5476,97.137364
2728.4113,97.142398
2730.2750,97.165841
2732.1386,97.173227
2734.0023,97.124839
2735.8660,97.078130
2737.7296,97.130846
2739.5933,97.156643
2741.4570,97.081973
2743.3206,97.063546
2745.1843,97.100308
2747.0480,97.097646
2748.9117,97.094426
2750.7753,97.091495
2752.6390,97.118199
2754.5027,97.132984
2756.3663,97.098284
2758.2300,97.073055
2760.0937,97.112341
2761.9573,97.156809
2763.8210,97.151945
2765.6847,97.123310
2767.5483,97.112010
2769.4120,97.083278
2771.2757,97.019962
2773.1394,97.030701
2775.0030,97.069256
2776.8667,97.098458
2778.7304,97.157698
2780.5940,97.161848
2782.4577,97.141329
2784.3214,97.111116
2786.1850,97.076027
2788.0487,97.096888
2789.9124,97.168461
2791.7760,97.158968
2793.6397,97.097341
2795.5034,97.131275
2797.3670,97.135671
2799.2307,97.117478
2801.0944,97.118467
2802.9581,97.106056
2804.8217,97.079913
2806.6854,97.065657
2808.5491,97.021644
2810.4127,97.025756
2812.2764,97.083670
2814.1401,97.100650
2816.0037,97.126890
2817.8674,97.161760
2819.7311,97.123805
2821.5947,97.061733
2823.4584,97.042843
2825.3221,97.038172
2827.1857,96.997625
2829.0494,97.032034
2830.9131,97.125207
2832.7768,97.155955
2834.6404,97.108724
2836.5041,97.021896
2838.3678,96.999488
2840.2314,97.069543
2842.0951,97.140590
2843.9588,97.117852
2845.8224,97.068743
2847.6861,97.084160
2849.5498,97.071801
2851.4134,97.067452
2853.2771,97.085230
2855.1408,97.010419
2857.0045,97.009516
2858.8681,97.084926
2860.7318,97.081176
2862.5955,97.062115
2864.4591,97.066765
2866.3228,97.064533
2868.1865,97.096167
2870.0501,97.109615
2871.9138,97.078060
2873.7775,97.054624
2875.6411,97.125471
2877.5048,97.188345
2879.3685,97.120539
2881.2321,97.077778
2883.0958,97.113065
2884.9595,97.113926
2886.8232,97.064844
2888.6868,97.044549
2890.5505,97.081220
2892.4142,97.122196
2894.2778,97.140533
2896.1415,97.066323
2898.0052,97.009499
2899.8688,97.073788
2901.7325,97.108405
2903.5962,97.089256
2905.4598,97.046943
2907.3235,97.003769
2909.1872,97.036354
2911.0509,97.085006
2912.9145,97.087392
2914.7782,97.074588
2916.6419,97.057267
2918.5055,97.041534
2920.3692,97.097828
2922.2329,97.132760
2924.0965,97.072170
2925.9602,97.061338
2927.8239,97.115904
2929.6875,97.157711
2931.5512,97.174981
2933.4149,97.200022
2935.2785,97.208896
2937.1422,97.160799
2939.0059,97.130506
2940.8696,97.127921
2942.7332,97.113158
2944.5969,97.138066
2946.4606,97.129284
2948.3242,97.107563
2950.1879,97.191446
2952.0516,97.193676
2953.9152,97.058134
2955.7789,97.065900
2957.6426,97.142733
2959.5062,97.160514
2961.3699,97.233945
2963.2336,97.277737
2965.0972,97.218788
2966.9609,97.191528
2968.8246,97.177793
2970.6883,97.160363
2972.5519,97.217833
2974.4156,97.276046
2976.2793,97.228195
2978.1429,97.147013
2980.0066,97.135652
2981.8703,97.150812
2983.7339,97.174327
2985.5976,97.119441
2987.4613,97.084623
2989.3249,97.176408
2991.1886,97.236436
2993.0523,97.189471
2994.9160,97.187246
2996.7796,97.233410
2998.6433,97.227611
3000.5070,97.153322
3002.3706,97.164533
3004.2343,97.210655
3006.0980,97.212916
3007.9616,97.251527
3009.8253,97.273835
3011.6890,97.220648
3013.5526,97.190961
3015.4163,97.174668
3017.2800,97.179194
3019.1436,97.200207
3021.0073,97.189162
3022.8710,97.219474
3024.7347,97.284102
3026.5983,97.187359
3028.4620,97.073472
3030.3257,97.053351
3032.1893,97.160240
3034.0530,97.241253
3035.9167,97.197502
3037.7803,97.162092
3039.6440,97.131080
3041.5077,97.122887
3043.3713,97.215330
3045.2350,97.273357
3047.0987,97.324688
3048.9624,97.254308
3050.8260,97.134003
3052.6897,97.153689
3054.5534,97.159191
3056.4170,97.161885
3058.2807,97.185610
3060.1444,97.136624
3062.0080,97.140740
3063.8717,97.160728
3065.7354,97.247760
3067.5990,97.322834
3069.4627,97.247705
3071.3264,97.162055
3073.1900,97.122213
3075.0537,97.058415
3076.9174,97.070322
3078.7811,97.155892
3080.6447,97.143034
3082.5084,97.105686
3084.3721,97.139138
3086.2357,97.177971
3088.0994,97.196640
3089.9631,97.259907
3091.8267,97.264375
3093.6904,97.235187
3095.5541,97.210161
3097.4177,97.127716
3099.2814,97.088409
3101.1451,97.111562
3103.0087,97.146808
3104.8724,97.202554
3106.7361,97.253711
3108.5998,97.186743
3110.4634,97.212811
3112.3271,97.277886
3114.1908,97.263043
3116.0544,97.217531
3117.9181,97.167915
3119.7818,97.081817
3121.6454,97.059963
3123.5091,97.144211
3125.3728,97.260928
3127.2364,97.251747
3129.1001,97.162760
3130.9638,97.163309
3132.8275,97.146094
3134.6911,97.098521
3136.5548,97.133117
3138.4185,97.201388
3140.2821,97.280952
3142.1458,97.301671
3144.0095,97.297327
3145.8731,97.275717
3147.7368,97.266305
3149.6005,97.146836
3151.4641,97.086248
3153.3278,97.195695
3155.1915,97.287258
3157.0551,97.278420
3158.9188,97.205370
3160.7825,97.179608
3162.6462,97.304121
3164.5098,97.342488
3166.3735,97.232001
3168.2372,97.186962
3170.1008,97.252395
3171.9645,97.214701
3173.8282,97.242055
3175.6918,97.317618
3177.5555,97.226682
3179.4192,97.204314
3181.2828,97.334716
3183.1465,97.361417
3185.0102,97.185959
3186.8739,97.113123
3188.7375,97.176409
3190.6012,97.228744
3192.4649,97.306818
3194.3285,97.239448
3196.1922,97.157834
3198.0559,97.187576
3199.9195,97.195440
3201.7832,97.187888
3203.6469,97.177876
3205.5105,97.254325
3207.3742,97.343365
3209.2379,97.272929
3211.1015,97.160034
3212.9652,97.120439
3214.8289,97.170978
3216.6926,97.299906
3218.5562,97.412490
3220.4199,97.459581
3222.2836,97.447984
3224.1472,97.400597
3226.0109,97.392110
3227.8746,97.329540
3229.7382,97.219568
3231.6019,97.150842
3233.4656,97.190557
3235.3292,97.191922
3237.1929,97.207326
3239.0566,97.347974
3240.9202,97.416673
3242.7839,97.349900
3244.6476,97.326373
3246.5113,97.276749
3248.3749,97.294936
3250.2386,97.330036
3252.1023,97.313863
3253.9659,97.311649
3255.8296,97.393600
3257.6933,97.335437
3259.5569,97.284166
3261.4206,97.313568
3263.2843,97.293547
3265.1479,97.255682
3267.0116,97.232995
3268.8753,97.205704
3270.7390,97.300662
3272.6026,97.389377
3274.4663,97.282884
3276.3300,97.215534
3278.1936,97.289806
3280.0573,97.319914
3281.9210,97.301408
3283.7846,97.310425
3285.6483,97.314071
3287.5120,97.300831
3289.3756,97.343887
3291.2393,97.370377
3293.1030,97.373085
3294.9666,97.337456
3296.8303,97.312448
3298.6940,97.337171
3300.5577,97.409937
3302.4213,97.376559
3304.2850,97.241931
3306.1487,97.195182
3308.0123,97.206391
3309.8760,97.306282
3311.7397,97.365970
3313.6033,97.361226
3315.4670,97.385290
3317.3307,97.352395
3319.1943,97.346834
3321.0580,97.363356
3322.9217,97.370160
3324.7854,97.370530
3326.6490,97.365541
3328.5127,97.369031
3330.3764,97.393566
3332.2400,97.387813
3334.1037,97.295248
3335.9674,97.346269
3337.8310,97.555935
3339.6947,97.506769
3341.5584,97.379145
3343.4220,97.375054
3345.2857,97.316377
3347.1494,97.256313
3349.0130,97.380862
3350.8767,97.406945
3352.7404,97.351266
3354.6041,97.375685
3356.4677,97.428584
3358.3314,97.382209
3360.1951,97.315763
3362.0587,97.262397
3363.9224,97.288942
3365.7861,97.308484
3367.6497,97.336155
3369.5134,97.368800
3371.3771,97.442853
3373.2407,97.466359
3375.1044,97.441730
3376.9681,97.446598
3378.8317,97.448019
3380.6954,97.473614
3382.5591,97.456989
3384.4228,97.444328
3386.2864,97.510899
3388.1501,97.409143
3390.0138,97.322531
3391.8774,97.396438
3393.7411,97.484142
3395.6048,97.456348
3397.4684,97.415839
3399.3321,97.378552
3401.1958,97.372145
3403.0594,97.395469
3404.9231,97.344811
3406.7868,97.299019
3408.6505,97.372107
3410.5141,97.400633
3412.3778,97.428813
3414.2415,97.508639
3416.1051,97.454884
3417.9688,97.372323
3419.8325,97.350889
3421.6961,97.424973
3423.5598,97.505608
3425.4235,97.451352
3427.2871,97.395722
3429.1508,97.455446
3431.0145,97.461412
3432.8781,97.375043
3434.7418,97.389886
3436.6055,97.461897
3438.4692,97.562424
3440.3328,97.500712
3442.1965,97.398884
3444.0602,97.455149
3445.9238,97.547616
3447.7875,97.471840
3449.6512,97.349590
3451.5148,97.376213
3453.3785,97.507090
3455.2422,97.550426
3457.1058,97.598106
3458.9695,97.607773
3460.8332,97.520194
3462.6969,97.470121
3464.5605,97.410587
3466.4242,97.397316
3468.2879,97.409267
3470.1515,97.569477
3472.0152,97.664884
3473.8789,97.496950
3475.7425,97.465917
3477.6062,97.547163
3479.4699,97.575599
3481.3335,97.528498
3483.1972,97.452600
3485.0609,97.405288
3486.9245,97.423646
3488.7882,97.520206
3490.6519,97.578154
3492.5156,97.598919
3494.3792,97.625216
3496.2429,97.581611
3498.1066,97.598970
3499.9702,97.629810
3501.8339,97.647416
3503.6976,97.660577
3505.5612,97.686615
3507.4249,97.763318
3509.2886,97.695652
3511.1522,97.656088
3513.0159,97.593296
3514.8796,97.520680
3516.7432,97.495439
3518.6069,97.406301
3520.4706,97.362374
3522.3343,97.485578
3524.1979,97.597862
3526.0616,97.642716
3527.9253,97.763252
3529.7889,97.815244
3531.6526,97.780256
3533.5163,97.854213
3535.3799,97.822815
3537.2436,97.689822
3539.1073,97.533683
3540.9709,97.481670
3542.8346,97.547405
3544.6983,97.648993
3546.5620,97.797638
3548.4256,97.646463
3550.2893,97.413886
3552.1530,97.466670
3554.0166,97.562704
3555.8803,97.630003
3557.7440,97.707430
3559.6076,97.596705
3561.4713,97.466279
3563.3350,97.549617
3565.1986,97.640825
3567.0623,97.584538
3568.9260,97.565902
3570.7896,97.627185
3572.6533,97.768762
3574.5170,97.798577
3576.3807,97.773880
3578.2443,97.747553
3580.1080,97.680861
3581.9717,97.677344
3583.8353,97.564676
3585.6990,97.450954
3587.5627,97.516205
3589.4263,97.602450
3591.2900,97.675712
3593.1537,97.732652
3595.0173,97.746530
3596.8810,97.624817
3598.7447,97.564593
3600.6084,97.682513
3602.4720,97.819095
3604.3357,97.783307
3606.1994,97.800531
3608.0630,97.724435
3609.9267,97.570881
3611.7904,97.545216
3613.6540,97.615336
3615.5177,97.764135
3617.3814,97.738216
3619.2450,97.579499
3621.1087,97.578955
3622.9724,97.642811
3624.8360,97.665276
3626.6997,97.649620
3628.5634,97.652093
3630.4271,97.622626
3632.2907,97.701807
3634.1544,97.628263
3636.0181,97.597587
3637.8817,97.703551
3639.7454,97.743294
3641.6091,97.698410
3643.4727,97.632187
3645.3364,97.632068
3647.2001,97.675433
3649.0637,97.500217
3650.9274,97.429480
3652.7911,97.641977
3654.6547,97.766523
3656.5184,97.727405
3658.3821,97.698634
3660.2458,97.606024
3662.1094,97.698658
3663.9731,97.767737
3665.8368,97.759439
3667.7004,97.756382
3669.5641,97.773189
3671.4278,97.747737
3673.2914,97.671303
3675.1551,97.447428
3677.0188,97.348407
3678.8824,97.495609
3680.7461,97.505745
3682.6098,97.573586
3684.4735,97.643815
3686.3371,97.579692
3688.2008,97.394301
3690.0645,97.475892
3691.9281,97.720572
3693.7918,97.849744
3695.6555,97.850048
3697.5191,97.781279
3699.3828,97.696194
3701.2465,97.617947
3703.1101,97.575091
3704.9738,97.507464
3706.8375,97.528415
3708.7011,97.439077
3710.5648,97.362454
3712.4285,97.652798
3714.2922,97.784833
3716.1558,97.679462
3718.0195,97.682443
3719.8832,97.631709
3721.7468,97.651953
3723.6105,97.707732
3725.4742,97.678964
3727.3378,97.746863
3729.2015,97.811148
3731.0652,97.690300
3732.9288,97.462315
3734.7925,97.433146
3736.6562,97.613870
3738.5199,97.662478
3740.3835,97.556811
3742.2472,97.498098
3744.1109,97.450140
3745.9745,97.510929
3747.8382,97.509859
3749.7019,97.539677
3751.5655,97.510426
3753.4292,97.614175
3755.2929,97.770852
3757.1565,97.734954
3759.0202,97.586244
3760.8839,97.624726
3762.7475,97.660573
3764.6112,97.542048
3766.4749,97.579499
3768.3386,97.617607
3770.2022,97.502967
3772.0659,97.452255
3773.9296,97.550344
3775.7932,97.641034
3777.6569,97.667744
3779.5206,97.585909
3781.3842,97.484578
3783.2479,97.451821
3785.1116,97.520975
3786.9752,97.616690
3788.8389,97.782156
3790.7026,97.777167
3792.5662,97.660338
3794.4299,97.591945
3796.2936,97.536311
3798.1573,97.563943
3800.0209,97.610638
3801.8846,97.545519
3803.7483,97.511059
3805.6119,97.581852
3807.4756,97.594263
3809.3393,97.618671
3811.2029,97.742869
3813.0666,97.728057
3814.9303,97.550918
3816.7939,97.546034
3818.6576,97.628594
3820.5213,97.495104
3822.3850,97.501960
3824.2486,97.645421
3826.1123,97.560122
3827.9760,97.528194
3829.8396,97.599679
3831.7033,97.590274
3833.5670,97.577221
3835.4306,97.580141
3837.2943,97.556769
3839.1580,97.457132
3841.0216,97.512788
3842.8853,97.593690
3844.7490,97.657333
3846.6126,97.643953
3848.4763,97.636726
3850.3400,97.655487
3852.2037,97.533905
3854.0673,97.355826
3855.9310,97.435462
3857.7947,97.515779
3859.6583,97.524142
3861.5220,97.623105
3863.3857,97.675120
3865.2493,97.661029
3867.1130,97.678296
3868.9767,97.678158
3870.8403,97.659039
3872.7040,97.543690
3874.5677,97.477223
3876.4314,97.587184
3878.2950,97.604554
3880.1587,97.498855
3882.0224,97.519440
3883.8860,97.493636
3885.7497,97.515726
3887.6134,97.603510
3889.4770,97.509003
3891.3407,97.462173
3893.2044,97.616057
3895.0680,97.676212
3896.9317,97.597929
3898.7954,97.521458
3900.6590,97.524983
3902.5227,97.503158
3904.3864,97.470010
3906.2501,97.524059
3908.1137,97.556462
3909.9774,97.545446
3911.8411,97.505376
3913.7047,97.476119
3915.5684,97.539449
3917.4321,97.645482
3919.2957,97.695914
3921.1594,97.600141
3923.0231,97.508814
3924.8867,97.518017
3926.7504,97.473318
3928.6141,97.516246
3930.4777,97.713704
3932.3414,97.787165
3934.2051,97.710143
3936.0688,97.637757
3937.9324,97.554336
3939.7961,97.477207
3941.6598,97.495043
3943.5234,97.544395
3945.3871,97.558016
3947.2508,97.624422
3949.1144,97.654072
3950.9781,97.621997
3952.8418,97.645898
3954.7054,97.627158
3956.5691,97.530492
3958.4328,97.507743
3960.2965,97.502387
3962.1601,97.570173
3964.0238,97.698312
3965.8875,97.633738
3967.7511,97.566586
3969.6148,97.570712
3971.4785,97.511712
3973.3421,97.527325
3975.2058,97.630053
3977.0695,97.614446
3978.9331,97.581932
3980.7968,97.547904
3982.6605,97.528853
3984.5241,97.497190
3986.3878,97.562119
3988.2515,97.518537
3990.1152,97.525530
3991.9788,97.531375
3993.8425,97.502319
3995.7062,97.554129
3997.5698,97.601614
3999.4335,97.619636
